#
#--------------------------------------------
# ARGUMENTS
#--------------------------------------------
#  ARG0000: /g/lu/code/fortran/hst1pass/CODE/hst1pass/hst1pass
#  ARG0001: HMIN=5
#  ARG0002: FMIN=25
#  ARG0003: PSF=/g/lu/code/fortran/hst1pass/LIB/PSFs/STDPSFs/WFC3UV/STDPSF_WFC3UV_F814W.fits
#  ARG0004: GDC=/g/lu/code/fortran/hst1pass/LIB/GDCs/STDGDCs/WFC3UV/STDGDC_WFC3UV_F814W.fits
#  ARG0005: PMAX=99999
#  ARG0006: CMIN=-1.0
#  ARG0007: CMAX=0.1
#  ARG0008: QMAX=0.5
#  ARG0009: PERT=0
#  ARG0010: OUT=uvwXYMpq
#  ARG0011: ../00.DATA/ie8j01xlq_flt.fits
#
#=================================
# WFC3/UVIS POSTFLASH INFO
#
# FLSHCORR: 'COMPLETE'
# FLASHDUR:                  3.9               3.90
# FLASHLVL:                   10              10.00
# FLASHLVL:                   10              10.00
# FLASHCUR: 'LOW    '                           L
# SHUTRPOS: 'B    '                             B
# DARKTIME:            96.707296              96.71
# DARKEST :                                    1.03 2020.20
#
#
#================================
# BASIC STAR-FINDING PARAMETERS
#
# FILENAME: ../00.DATA/ie8j01xlq_flt.fits
#   NAXIS1:  4096
#   NAXIS2:  4096
#
#   CRPIX1:     512.0000000000000000000000
#   CRPIX2:     511.0000000000000000000000
#   CRVAL1:     271.4794319394100057252217
#   CRVAL2:     -30.3369711106279993373391
#    CD1_1:       0.0000075969050041170608
#    CD1_2:       0.0000080216305677613700
#    CD2_1:       0.0000080216305677613700
#    CD2_2:      -0.0000075969050041170608
#
#     HMIN:          5
#     PMAX:      99999.0
#     FMIN:         25.0        25.0
# HISTMODE:          7.9
# HIFLAG  :      64000
# HIFLAG_I:      64000
# LOFLAG_I:        -50
# DOAPPHOT:          F
#      PID:      16067
#     FILT:      F814W
#    EXPTI:         87.0000
#    EXPTE:         87.0000
#     rDAT:       2020.19904900
#  TIMESTR:      '15:41:26'
#  DATESTR:      '2020-03-13'
# APERTURE:      'UVIS2-C1K1C-SUB '
#     GAIN:          0.00
#
#  PSF_INP: /g/lu/code/fortran/hst1pass/LIB/PSFs/STDPSFs/WFC3UV/STDPSF_WFC3UV_F814W.fits
#  PSF_USE: /g/lu/code/fortran/hst1pass/LIB/PSFs/STDPSFs/WFC3UV/STDPSF_WFC3UV_F814W.fits
#   NPERTs:    0
#
#  GDC_INP: /g/lu/code/fortran/hst1pass/LIB/GDCs/STDGDCs/WFC3UV/STDGDC_WFC3UV_F814W.fits
#
#
#================================
# PSF INFO
#
# PSFFILE_USE: /g/lu/code/fortran/hst1pass/LIB/PSFs/STDPSFs/WFC3UV/STDPSF_WFC3UV_F814W.fits
#
#      CENTRAL PIXEL ARRAY
#                           0000    0682    1365    2048    2731    3413    4096
#                             01      02      03      04      05      06      07
#               4096 08   0.1531  0.1594  0.1651  0.1662  0.1672  0.1688  0.1687
#               3413 07   0.1590  0.1618  0.1645  0.1658  0.1668  0.1677  0.1687
#               2731 06   0.1629  0.1645  0.1651  0.1659  0.1677  0.1684  0.1694
#               2049 05   0.1632  0.1655  0.1663  0.1663  0.1686  0.1697  0.1700
#               2048 04   0.1623  0.1666  0.1690  0.1680  0.1692  0.1719  0.1743
#               1365 03   0.1644  0.1668  0.1668  0.1673  0.1716  0.1733  0.1736
#               0682 02   0.1648  0.1656  0.1645  0.1696  0.1791  0.1741  0.1704
#               0000 01   0.1629  0.1640  0.1643  0.1746  0.1842  0.1734  0.1678
#
#
#=================================
# FRAME INFO
#
#      WCSMODE: AUTO
#     TARGNAME: MOA-2019-BLG-284
#     RA_TARG :   2.714794166667E+02
#     DEC_TARG:  -3.033692777778E+01
#        INSTu:     8
#     PLATESCL:   40.000 mas/pix
#
#        INST1:        512.00      0.00000760  0.00000802       271.4794319  18:05:55.06
#            2:        511.00      0.00000802 -0.00000760       -30.3369711 -30:20:13.09       39.773
#        -----     ----------     ----------- -----------      ------------ ------------     ---------
#        FRAME         CRPIX         CD_1        CD_2           RADEC(DEG)  RADEC(SEXIG)     (mas/pix)
#        -----     ----------     ----------- -----------      ------------ ------------     ---------
#        DEST1:          0.00     -0.00001111  0.00000000       271.4794167  18:05:55.05       40.000
#            2:          0.00      0.00000000  0.00001111       -30.3369278 -30:20:12.93
#
#
#=======================================
# FINDING STATISTICS
#
#  WHY    NPIX      %PIX   EXPLANATION
#  --- --------  -------   -------------
#   1 15657035   93.323%   ..1..not on chip....
#   2   940806    5.608%   ..2..not loc max....
#   3    86845    0.518%   ..3..h < hmax.......
#   4     3218    0.019%   ..4..flux too low...
#   5        0    0.000%   ..5..below mask thr.
#   6        0    0.000%   ..6..out of bounds..
#   7        1    0.000%   ..7..loflag issues..
#   8        0    0.000%   ..8..saturated......
#   9        1    0.000%   ..9..not contig sat.
#  10        0    0.000%   .10..not loc sat max
#  11        0    0.000%   .11..sat weirdness..
#  12     4155    0.025%   .12..pk but not qsel
#  13     1529    0.009%   .13..pk too peaky...
#  14        1    0.000%   .14..satd CR........
#  15     1800    0.011%   .15..good unsat.....
#  16        5    0.000%   .16..good satd......
#
#
#=======================================
# LUMINOSITY FUNCTION EXTRACTED
#
#    MAG   LFe    CUMe      LFe/s CUMe/s
#-------- -----  ------   ------- ------
# LF -18      1      1          0      0
# LF -17      0      1          0      0
# LF -16      0      1          0      0
# LF -15      2      3          0      0
# LF -14     12     15          0      0
# LF -13     13     28          1      1
# LF -12     23     51          0      1
# LF -11    101    152          0      1
# LF -10    226    378          3      4
# LF  -9    312    690         13     17
# LF  -8    415   1105         15     32
# LF  -7    501   1606         24     56
# LF  -6    199   1805        128    184
# LF  -5      0   1805        236    420
# LF  -4      0   1805        336    756
# LF  -3      0   1805        427   1183
# LF  -2      0   1805        502   1685
# LF  -1      0   1805        120   1805
#-------- -----  ------   ------- ------
#
#
#=====================================
# BOUNDARY INFO   INST=8 Ks=2
#
# -----------     ------------- -------------     ------------- -------------     ------------- -------------     ------------- -------------
#     SYS CHP         P1a           P1b               P2a           P2b               P3a           P3b               P4a           P4b
# -----------     ------------- -------------     ------------- -------------     ------------- -------------     ------------- -------------
# BDRY_xy_K1:         1.0000000     2.0000000      1025.0000000     2.0000000      1025.0000000  1025.0000000         1.0000000  1025.0000000
# BDRY_uv_K1:         6.5533200    73.2765900      1024.8520600   134.8837700      1027.9537700  1160.1370600        12.8410400  1095.9083900
# BDRY_rd_K1:       271.4699164   -30.3369505       271.4794522   -30.3292504       271.4890085   -30.3370139       271.4794764   -30.3446692
# BDRY_UV_K1:         6.5533200    73.2765900      1024.8520600   134.8837700      1027.9537700  1160.1370600        12.8410400  1095.9083900
# -----------     ------------- -------------     ------------- -------------     ------------- -------------     ------------- -------------
# BDRY_xy_K2:      4095.0000000  4095.0000000      4095.0000000  4095.0000000      4095.0000000  4095.0000000      4095.0000000  4095.0000000
# BDRY_uv_K2:      4085.5385400  4454.7187200      4085.5385400  4454.7187200      4085.5385400  4454.7187200      4085.5385400  4454.7187200
# BDRY_rd_K2:       271.5465431   -30.3374990       271.5465431   -30.3374990       271.5465431   -30.3374990       271.5465431   -30.3374990
# BDRY_UV_K2:      4085.5385400  4454.7187200      4085.5385400  4454.7187200      4085.5385400  4454.7187200      4085.5385400  4454.7187200
# -----------     ------------- -------------     ------------- -------------     ------------- -------------     ------------- -------------
#
#
#===================================================
#  FILEOUT: ie8j01xlq_flt.uvwXYMpq                                                          
#---------------------------------------------------
# (01)  u -- u ref-frame           c002-c010    F001
# (02)  v -- v ref-frame           c012-c020    F002
# (03)  w -- dist-corr inst mag    c022-c028    F044
# (04)  X -- dist-cor x posn       c030-c038    F008
# (05)  Y -- dist-cor y posn       c040-c048    F009
# (06)  M -- instl mag (1000s)     c050-c056    F003
# (07)  p -- peak pixel value      c058-c068    F018
# (08)  q -- quality of fit        c070-c074    F019
#---------------------------------------------------
#
#  (01)      (02)     (03)     (04)      (05)     (06)      (07)     (08)   
#
#....u.... ....v.... ...w... ....X.... ....Y.... ...M... .....p..... ..q..  
#
  157.6324   86.4352 -12.670  153.2518    5.9927 -12.669    17916.53 0.031
  361.3400   99.0173  -9.211  358.3996    6.2207  -9.207      669.54 0.071
  172.3246   88.4927  -7.099  168.0479    7.1580  -7.097      117.53 0.258
  189.5283   92.4923 -12.365  185.3628   10.1080 -12.363    12711.59 0.031
  220.8657   94.9735  -6.211  216.9287   10.6864  -6.208       58.79 0.449
  366.6000  103.7934  -6.892  363.6707   10.6631  -6.888       76.54 0.294
 1004.7764  145.2297  -7.270 1004.8320   13.5002  -7.260      112.04 0.199
  209.9037   97.2807  -8.235  205.8692   13.6502  -8.232      275.26 0.110
  553.6105  118.7395 -11.584  551.7548   14.2736 -11.578     6376.37 0.031
  693.6676  127.3887  -9.669  692.5038   14.4329  -9.662      892.94 0.084
  970.5597  143.1918  -6.570  970.5111   13.5299  -6.561       61.08 0.377
  453.4703  112.9308 -10.753  451.0579   14.5240 -10.748     2765.43 0.021
  566.8806  120.2356  -7.438  565.0922   14.9625  -7.433      153.36 0.203
  910.9435  140.7390  -7.868  910.6871   14.6819  -7.859      186.87 0.132
  487.3000  116.4728  -8.736  485.0737   16.0142  -8.731      478.25 0.090
  926.2383  143.2492  -8.975  926.0309   16.2583  -8.966      573.07 0.061
  953.8350  144.2051  -8.224  953.7246   15.5464  -8.215      246.04 0.160
  975.5571  145.6941  -7.407  975.5176   15.7191  -7.397      123.47 0.221
  809.9672  137.3847  -8.333  809.3253   17.4196  -8.325      297.86 0.061
  286.5105  106.3028  -9.325  283.0029   18.0080  -9.322      888.52 0.038
  754.0036  134.4268  -7.914  753.1334   17.8391  -7.907      242.65 0.140
 1009.1692  149.7308  -6.438 1009.2243   17.7152  -6.429       70.11 0.409
  612.2876  127.5244  -6.807  610.7129   19.4810  -6.801       83.47 0.263
  652.8672  130.2844 -10.103  651.4906   19.7798 -10.097     1447.04 0.045
  203.6819  104.0955  -9.872  199.5604   20.8215  -9.870     1228.60 0.028
  360.8275  113.7591  -8.784  357.8072   20.9452  -8.780      547.42 0.081
  958.3221  149.9611 -10.362  958.2089   21.0045 -10.352     2184.89 0.027
  730.0153  137.1888  -8.324  729.0259   22.0321  -8.317      349.83 0.076
  865.4035  145.0025  -6.542  864.9539   21.6707  -6.534       74.35 0.349
   65.2716   98.5009  -6.586   60.0585   23.6020  -6.585       78.97 0.355
  600.3280  130.2684  -7.670  598.6776   22.9364  -7.664      179.19 0.164
  737.0222  137.9750  -6.309  736.0618   22.3935  -6.302       49.32 0.456
  573.0056  129.2260  -7.565  571.2107   23.5483  -7.559      141.43 0.158
  833.0174  145.5040  -6.752  832.4396   24.1170  -6.744       77.00 0.319
  995.5795  156.0269  -7.597  995.5724   24.7977  -7.587      155.69 0.157
  131.5579  104.7452  -9.712  126.8599   25.8257  -9.711     1226.92 0.055
  693.6351  138.6000  -8.594  692.4258   25.6005  -8.587      389.46 0.107
  808.9225  145.9735  -6.683  808.2448   26.0334  -6.675       70.10 0.196
  272.5733  115.2441  -8.585  268.9146   27.7656  -8.582      404.51 0.067
  376.3851  121.2529 -10.476  373.4324   27.4738 -10.472     1836.54 0.037
  854.7465  150.8545  -7.096  854.2354   28.1369  -7.088      109.55 0.332
  948.0682  156.6574  -9.588  947.8964   28.2875  -9.579     1042.71 0.052
  639.4196  138.3583  -8.685  637.9402   28.6337  -8.679      435.58 0.086
  895.3274  155.2212  -6.379  894.9616   30.0385  -6.370       53.61 0.419
   11.4653  102.9057  -7.506    5.7661   31.2590  -7.505      143.99 0.181
  214.7845  114.4814  -7.084  210.6908   30.5047  -7.081      104.18 0.284
  327.0027  122.8897 -10.797  323.6986   32.0930 -10.794     3046.42 0.037
  484.6964  132.8028  -7.593  482.3765   32.4425  -7.588      117.43 0.259
  550.0379  136.1702  -6.249  548.0826   31.8536  -6.244       51.23 0.360
  498.6330  134.4641  -7.273  496.3880   33.2570  -7.267      120.82 0.183
  655.8546  143.6774  -6.927  654.4370   32.9392  -6.921      111.40 0.415
  823.1995  153.5485  -6.572  822.5529   32.7163  -6.564       66.99 0.304
  925.2541  160.0130  -6.328  924.9872   33.0033  -6.319       62.39 0.315
   83.3531  110.9218  -7.608   78.2174   34.8994  -7.607      171.14 0.119
  219.3942  119.2524  -6.872  215.3094   34.9827  -6.870      109.71 0.338
  876.2968  160.2936 -10.213  875.8377   36.2357 -10.205     1947.25 0.039
  902.6531  161.4636  -7.284  902.2947   35.8105  -7.275      116.04 0.333
  213.5173  120.8365  -6.679  209.3779   36.9182  -6.677       81.70 0.294
  778.4458  155.1662 -10.097  777.6042   37.0200 -10.089     1620.86 0.033
  746.3407  155.1345  -8.748  745.3560   38.9211  -8.741      371.11 0.251
  797.4480  158.5716  -7.786  796.6756   39.2673  -7.779      225.61 0.227
 1016.1638  170.9548  -7.556 1016.1749   38.4153  -7.546      143.09 0.177
  999.9164  172.1812  -6.295  999.8724   40.6139  -6.285       55.24 0.424
  951.8398  169.6012  -9.320  951.6393   40.9436  -9.311      803.21 0.037
  383.1462  136.5542  -7.597  380.1611   42.3172  -7.593      192.88 0.270
  578.7164  147.8756  -8.408  576.8699   41.7821  -8.402      357.47 0.072
  848.0786  165.5121  -8.435  847.4895   43.1304  -8.427      313.52 0.079
  898.0393  168.8670  -8.673  897.6378   43.4587  -8.665      360.42 0.097
  124.9367  122.0492  -6.816  120.0815   43.4847  -6.814       80.38 0.287
  970.8104  173.7144  -9.699  970.6643   43.8935  -9.690     1111.90 0.043
  284.6886  132.9356  -8.792  281.0240   44.6706  -8.789      512.48 0.066
  403.3231  140.3792  -8.300  400.4545   44.9089  -8.296      295.38 0.144
   18.2918  117.5568 -10.308   12.5606   45.4628 -10.307     1469.88 0.131
  340.9332  137.5022  -7.597  337.6509   45.8175  -7.593      174.31 0.162
  370.4139  139.5067  -6.412  367.3265   46.0311  -6.408       66.57 0.369
  457.1314  144.5190  -7.228  454.5869   45.7826  -7.223      118.05 0.268
  234.1392  131.8582  -7.315  230.0980   46.6590  -7.313      124.69 0.230
  314.5868  137.0771  -8.391  311.1189   46.9889  -8.387      331.43 0.100
  469.7116  146.3357  -7.292  467.2357   46.8333  -7.287      151.62 0.192
  710.9534  161.2573  -7.429  709.7791   47.1502  -7.423      147.03 0.190
  655.3626  158.6345 -10.223  653.8799   47.8679 -10.217     1929.13 0.034
   68.5743  124.3265 -10.273   63.2303   49.1661 -10.272     1932.61 0.030
  375.8106  143.3497  -8.593  372.7405   49.5355  -8.589      340.76 0.095
  481.3677  148.6691  -6.502  478.9516   48.4545  -6.497       70.98 0.492
  793.7878  167.8721  -6.538  792.9651   48.7488  -6.530       75.99 0.327
  896.9227  173.8344  -7.598  896.4999   48.4711  -7.589      135.06 0.156
  446.9624  148.1871 -10.270  444.3365   50.0530 -10.266     1902.99 0.027
   54.2266  125.2376  -7.877   48.7529   50.9434  -7.877      217.25 0.136
  212.1870  135.2969  -6.587  207.9555   51.4185  -6.585       60.03 0.296
  723.7348  167.3453  -6.444  722.5972   52.4440  -6.437       52.62 0.372
  455.3036  151.3925  -7.771  452.7142   52.7436  -7.767      209.95 0.151
   93.4188  130.1276  -7.735   88.2514   53.4500  -7.734      171.72 0.135
  286.2714  142.6018  -8.281  282.5663   54.2128  -8.278      262.97 0.137
  779.1625  172.6789  -8.908  778.2580   54.4165  -8.901      531.63 0.077
  372.2218  149.7789  -6.493  369.0941   56.1623  -6.489       63.45 0.325
  838.1846  178.0568  -7.707  837.5111   56.2163  -7.699      156.45 0.211
  851.2513  178.6673  -8.394  850.6285   56.0372  -8.386      359.03 0.094
  104.7526  134.0721  -9.614   99.6572   56.6990  -9.613      995.25 0.055
  544.2354  160.8767  -8.207  542.1336   56.8200  -8.202      295.40 0.172
 1013.0914  190.0013  -8.269 1013.0342   57.5565  -8.260      279.95 0.095
  137.5702  137.7760  -8.690  132.7258   58.4075  -8.688      415.27 0.080
  203.8456  140.9821  -8.938  199.5161   57.5937  -8.936      475.01 0.087
  350.7622  150.7125  -9.542  347.4802   58.3927  -9.539      783.98 0.037
  404.0139  153.1492  -9.074  401.0854   57.5969  -9.070      587.39 0.060
  246.6492  145.2088  -8.433  242.6302   59.2139  -8.431      325.26 0.104
  463.4394  158.2133 -10.794  460.8673   59.0501 -10.789     3282.53 0.035
  556.7080  165.0944  -8.778  554.6592   60.2682  -8.773      427.14 0.163
  604.0690  167.2520  -8.085  602.2770   59.5538  -8.080      243.40 0.117
  653.2283  170.8455 -10.189  651.6834   60.1614 -10.183     1756.89 0.029
 1005.9259  192.5775  -7.574 1005.8376   60.5525  -7.565      158.93 0.148
  301.6120  151.4747  -8.837  297.9729   62.1304  -8.834      553.46 0.069
  547.4038  165.7319  -9.048  545.2983   61.4662  -9.043      514.66 0.056
  512.7149  165.0241  -7.235  510.4091   62.8586  -7.230      122.25 0.291
  535.2790  166.2416  -7.989  533.1001   62.7075  -7.984      270.27 0.157
  165.5325  144.8387 -14.102  160.8750   63.7596 -14.100    65461.65 0.029
  444.1340  161.5198 -10.613  441.4247   63.5134 -10.609     2056.14 0.041
   61.4753  139.9003  -6.273   55.9739   65.1344  -6.272       54.56 0.353
  978.6155  197.2118  -7.910  978.4214   66.8125  -7.901      216.34 0.122
  511.6375  171.0159  -8.876  509.2971   68.8948  -8.872      535.72 0.069
  582.8393  175.4515  -8.797  580.8931   69.0075  -8.792      533.23 0.067
  612.6726  177.2463  -7.104  610.8842   68.9910  -7.099      120.83 0.230
  782.8775  187.5567  -8.562  781.9335   69.0096  -8.555      449.88 0.096
   15.1865  141.8321  -9.251    9.2721   69.8712  -9.251      769.47 0.055
   81.9727  146.6535  -7.769   76.6071   70.6309  -7.769      163.17 0.156
  590.5948  177.6361  -6.819  588.6825   70.7150  -6.814       92.74 0.261
  225.6546  156.7047  -6.997  221.4086   71.9515  -6.995       96.04 0.274
  432.7807  168.9450  -8.050  429.9622   71.6021  -8.046      226.66 0.148
  840.6103  193.6647  -8.211  839.8911   71.6118  -8.203      274.93 0.131
  896.7532  197.6455 -11.198  896.2487   72.1876 -11.189     4540.67 0.020
  984.3787  202.3797  -6.554  984.1880   71.6094  -6.545       62.04 0.476
  796.2303  193.1615  -7.882  795.3244   73.7865  -7.874      191.46 0.149
  282.3550  163.0535  -7.952  278.5102   74.8442  -7.949      212.60 0.118
  601.9129  182.4614  -7.450  600.0425   74.8382  -7.445      157.68 0.196
  665.8923  186.9475 -10.989  664.3460   75.4373 -10.983     3003.87 0.100
  217.0512  160.6003  -6.269  212.7155   76.3585  -6.267       55.95 0.445
  595.6411  183.6530  -6.783  593.7306   76.4050  -6.778       91.54 0.339
  784.2250  194.9204 -10.990  783.2594   76.2624 -10.983     3631.14 0.036
  138.2704  156.0437  -6.910  133.3240   76.5880  -6.909       87.31 0.213
  729.8306  192.5772  -7.553  728.6226   77.2098  -7.546      155.83 0.217
  395.0699  173.0473  -8.990  391.9800   77.9765  -8.986      621.73 0.067
  573.5864  183.5175 -10.743  571.5516   77.6045 -10.738     2509.61 0.020
  590.3954  184.7900  -8.160  588.4504   77.8554  -8.154      252.52 0.140
  430.9243  176.0748 -10.404  428.0585   78.8224 -10.400     2347.64 0.044
  926.0000  206.4667  -6.580  925.5812   79.2039  -6.572       57.95 0.443
   53.9202  155.3145  -8.732   48.2572   80.9735  -8.732      466.11 0.068
  196.0189  164.3803  -8.468  191.4938   81.4047  -8.467      310.30 0.070
  525.6211  184.8294  -6.667  523.2992   81.8150  -6.662       86.09 0.478
  322.8937  173.4173  -7.414  319.2937   82.7209  -7.411      138.88 0.164
  680.3988  196.8010  -9.563  678.8866   84.3770  -9.557      975.27 0.057
