#
#--------------------------------------------
# ARGUMENTS
#--------------------------------------------
#  ARG0000: /g/lu/code/fortran/hst1pass/CODE/hst1pass/hst1pass
#  ARG0001: HMIN=5
#  ARG0002: FMIN=25
#  ARG0003: PSF=/g/lu/code/fortran/hst1pass/LIB/PSFs/STDPSFs/WFC3UV/STDPSF_WFC3UV_F814W.fits
#  ARG0004: GDC=/g/lu/code/fortran/hst1pass/LIB/GDCs/STDGDCs/WFC3UV/STDGDC_WFC3UV_F814W.fits
#  ARG0005: PMAX=99999
#  ARG0006: CMIN=-1.0
#  ARG0007: CMAX=0.1
#  ARG0008: QMAX=0.5
#  ARG0009: PERT=0
#  ARG0010: WCS=MAT
#  ARG0011: ART_UVW=FAKE.UVW
#  ARG0012: SHOW_ART-
#  ARG0013: OUT=uvwXYMpq
#  ARG0017: ../00.DATA/ie8j01xoq_flt.fits
#
#=================================
# WFC3/UVIS POSTFLASH INFO
#
# FLSHCORR: 'COMPLETE'
# FLASHDUR:                  3.9               3.90
# FLASHLVL:                   10              10.00
# FLASHLVL:                   10              10.00
# FLASHCUR: 'LOW    '                           L
# SHUTRPOS: 'A    '                             A
# DARKTIME:            96.707296              96.71
# DARKEST :                                    1.03 2020.20
#
#
#================================
# BASIC STAR-FINDING PARAMETERS
#
# FILENAME: ../00.DATA/ie8j01xoq_flt.fits
#   NAXIS1:  4096
#   NAXIS2:  4096
#
#   CRPIX1:     512.0000000000000000000000
#   CRPIX2:     511.0000000000000000000000
#   CRVAL1:     271.4793106759000238525914
#   CRVAL2:     -30.3369849848139985226680
#    CD1_1:       0.0000075969050041170608
#    CD1_2:       0.0000080216305677613700
#    CD2_1:       0.0000080216305677613700
#    CD2_2:      -0.0000075969050041170608
#
#     HMIN:          5
#     PMAX:      99999.0
#     FMIN:         25.0        25.0
# HISTMODE:          7.8
# HIFLAG  :      64000
# HIFLAG_I:      64000
# LOFLAG_I:        -50
# DOAPPHOT:          F
#      PID:      16067
#     FILT:      F814W
#    EXPTI:         87.0000
#    EXPTE:         87.0000
#     rDAT:       2020.19906807
#  TIMESTR:      '15:50:35'
#  DATESTR:      '2020-03-13'
# APERTURE:      'UVIS2-C1K1C-SUB '
#     GAIN:          0.00
#
#  PSF_INP: /g/lu/code/fortran/hst1pass/LIB/PSFs/STDPSFs/WFC3UV/STDPSF_WFC3UV_F814W.fits
#  PSF_USE: /g/lu/code/fortran/hst1pass/LIB/PSFs/STDPSFs/WFC3UV/STDPSF_WFC3UV_F814W.fits
#   NPERTs:    0
#
#  GDC_INP: /g/lu/code/fortran/hst1pass/LIB/GDCs/STDGDCs/WFC3UV/STDGDC_WFC3UV_F814W.fits
#
#
#================================
# PSF INFO
#
# PSFFILE_USE: /g/lu/code/fortran/hst1pass/LIB/PSFs/STDPSFs/WFC3UV/STDPSF_WFC3UV_F814W.fits
#
#      CENTRAL PIXEL ARRAY
#                           0000    0682    1365    2048    2731    3413    4096
#                             01      02      03      04      05      06      07
#               4096 08   0.1531  0.1594  0.1651  0.1662  0.1672  0.1688  0.1687
#               3413 07   0.1590  0.1618  0.1645  0.1658  0.1668  0.1677  0.1687
#               2731 06   0.1629  0.1645  0.1651  0.1659  0.1677  0.1684  0.1694
#               2049 05   0.1632  0.1655  0.1663  0.1663  0.1686  0.1697  0.1700
#               2048 04   0.1623  0.1666  0.1690  0.1680  0.1692  0.1719  0.1743
#               1365 03   0.1644  0.1668  0.1668  0.1673  0.1716  0.1733  0.1736
#               0682 02   0.1648  0.1656  0.1645  0.1696  0.1791  0.1741  0.1704
#               0000 01   0.1629  0.1640  0.1643  0.1746  0.1842  0.1734  0.1678
#
#
#=================================
# FRAME INFO
#
#      WCSMODE: MAT
#
#  WCSMODE: MAT
#    MFILE: ie8j01xoq_mat.UVuvWw
#    NMATs:   254
#       AB:     1.000013   -0.000007
#       CD:     0.000041    0.999957
#        1:   514.77  628.32
#        2:   522.23  634.30
#       ZP:    -0.01
#
#
#        INST1:        512.00      0.00000760  0.00000802       271.4793107  18:05:55.03
#            2:        511.00      0.00000802 -0.00000760       -30.3369850 -30:20:13.14       39.773
#        -----     ----------     ----------- -----------      ------------ ------------     ---------
#        FRAME         CRPIX         CD_1        CD_2           RADEC(DEG)  RADEC(SEXIG)     (mas/pix)
#        -----     ----------     ----------- -----------      ------------ ------------     ---------
#        DEST1:         -0.00     -0.00000000 -0.00000000        -0.0000000  00:00:00.00        0.000
#            2:         -0.00     -0.00000000 -0.00000000        -0.0000000 -00:00:00.00
#
#
# ARTSTARS:     1
#   ASTYPE:   UVW
#  ARTFILE: ie8j01xoq_art.xymnfo
#
#  MATFILE: ie8j01xoq_mat.UVuvWw
#    NMATs:   254
#       AB:     1.000013   -0.000007
#       CD:     0.000041    0.999957
#        1:   514.77  628.32
#        2:   522.23  634.30
#       ZP:    -0.01
#
#=======================================
# FINDING STATISTICS
#
#  WHY    NPIX      %PIX   EXPLANATION
#  --- --------  -------   -------------
#   1 15657035   93.323%   ..1..not on chip....
#   2   939853    5.602%   ..2..not loc max....
#   3    87709    0.523%   ..3..h < hmax.......
#   4     3322    0.020%   ..4..flux too low...
#   5        0    0.000%   ..5..below mask thr.
#   6        0    0.000%   ..6..out of bounds..
#   7        1    0.000%   ..7..loflag issues..
#   8        0    0.000%   ..8..saturated......
#   9        4    0.000%   ..9..not contig sat.
#  10        0    0.000%   .10..not loc sat max
#  11        0    0.000%   .11..sat weirdness..
#  12     4098    0.024%   .12..pk but not qsel
#  13     1501    0.009%   .13..pk too peaky...
#  14        0    0.000%   .14..satd CR........
#  15     1869    0.011%   .15..good unsat.....
#  16        4    0.000%   .16..good satd......
#
#
#=======================================
# LUMINOSITY FUNCTION EXTRACTED
#
#    MAG   LFe    CUMe      LFe/s CUMe/s
#-------- -----  ------   ------- ------
# LF -18      1      1          0      0
# LF -17      0      1          0      0
# LF -16      0      1          0      0
# LF -15      2      3          0      0
# LF -14     12     15          0      0
# LF -13     13     28          1      1
# LF -12     26     54          0      1
# LF -11    101    155          0      1
# LF -10    232    387          3      4
# LF  -9    320    707         13     17
# LF  -8    430   1137         16     33
# LF  -7    530   1667         28     61
# LF  -6    206   1873        126    187
# LF  -5      0   1873        241    428
# LF  -4      0   1873        356    784
# LF  -3      0   1873        430   1214
# LF  -2      0   1873        518   1732
# LF  -1      0   1873        141   1873
#-------- -----  ------   ------- ------
#
#
#=====================================
# BOUNDARY INFO   INST=8 Ks=2
#
# -----------     ------------- -------------     ------------- -------------     ------------- -------------     ------------- -------------
#     SYS CHP         P1a           P1b               P2a           P2b               P3a           P3b               P4a           P4b
# -----------     ------------- -------------     ------------- -------------     ------------- -------------     ------------- -------------
# BDRY_xy_K1:         1.0000000     2.0000000      1025.0000000     2.0000000      1025.0000000  1025.0000000         1.0000000  1025.0000000
# BDRY_uv_K1:         6.5533200    73.2765900      1024.8520600   134.8837700      1027.9537700  1160.1370600        12.8410400  1095.9083900
# BDRY_rd_K1:       271.4697951   -30.3369643       271.4793309   -30.3292643       271.4888873   -30.3370278       271.4793551   -30.3446831
# BDRY_UV_K1:         6.5533200    73.2765900      1024.8520600   134.8837700      1027.9537700  1160.1370600        12.8410400  1095.9083900
# -----------     ------------- -------------     ------------- -------------     ------------- -------------     ------------- -------------
# BDRY_xy_K2:      4095.0000000  4095.0000000      4095.0000000  4095.0000000      4095.0000000  4095.0000000      4095.0000000  4095.0000000
# BDRY_uv_K2:      4085.5385400  4454.7187200      4085.5385400  4454.7187200      4085.5385400  4454.7187200      4085.5385400  4454.7187200
# BDRY_rd_K2:       271.5464219   -30.3375128       271.5464219   -30.3375128       271.5464219   -30.3375128       271.5464219   -30.3375128
# BDRY_UV_K2:      4085.5385400  4454.7187200      4085.5385400  4454.7187200      4085.5385400  4454.7187200      4085.5385400  4454.7187200
# -----------     ------------- -------------     ------------- -------------     ------------- -------------     ------------- -------------
#
#
#===================================================
#  FILEOUT: ie8j01xoq_flt.uvwXYMpq                                                          
#---------------------------------------------------
# (01)  u -- u ref-frame           c002-c010    F001
# (02)  v -- v ref-frame           c012-c020    F002
# (03)  w -- dist-corr inst mag    c022-c028    F044
# (04)  X -- dist-cor x posn       c030-c038    F008
# (05)  Y -- dist-cor y posn       c040-c048    F009
# (06)  M -- instl mag (1000s)     c050-c056    F003
# (07)  p -- peak pixel value      c058-c068    F018
# (08)  q -- quality of fit        c070-c074    F019
#---------------------------------------------------
#
#  (01)      (02)     (03)     (04)      (05)     (06)      (07)     (08)   
#
#....u.... ....v.... ...w... ....X.... ....Y.... ...M... .....p..... ..q..  
#
  730.0512  121.1215 -12.413  729.1251    6.0304 -12.406    14921.99 0.036
  977.3249  136.2236  -6.868  977.3219    6.1879  -6.859       87.74 0.379
  570.8414  113.0203  -8.416  569.1073    7.5363  -8.411      337.15 0.094
   14.2513   79.5883  -7.541    8.7263    7.8311  -7.541      159.16 0.226
  131.7357   86.6182  -7.224  127.1466    7.7375  -7.223      123.93 0.214
  424.3577  104.4999  -9.446  421.8071    7.8772  -9.441      929.72 0.040
  874.9410  131.7651  -6.986  874.5751    7.9201  -6.977       99.77 0.214
  486.5599  110.3787  -7.680  484.3584    9.9870  -7.675      183.02 0.102
  514.7135  112.3870  -9.546  512.6663   10.2918  -9.541      934.34 0.063
  165.0929   92.4211 -12.678  160.7364   11.5113 -12.676    15473.68 0.032
  698.5699  124.1035  -6.365  697.4428   10.8654  -6.359       54.72 0.412
  817.2844  131.1339  -6.944  816.6953   10.7570  -6.936       81.89 0.458
  904.9274  136.6990  -7.208  904.6617   11.0235  -7.199      126.02 0.177
  368.8023  105.0036  -9.263  365.8817   11.7361  -9.259      825.65 0.088
  402.2676  107.5912  -5.609  399.5580   12.2922  -5.604       29.98 0.467
  179.5115   94.4456  -7.210  175.2568   12.6599  -7.208      115.54 0.243
  157.4016   96.1536  -7.407  152.9624   15.6973  -7.405       97.49 0.378
  196.9922   98.4761 -12.369  192.8504   15.6236 -12.367    12604.29 0.029
  228.4119  100.8984  -6.358  224.4995   16.1367  -6.355       55.66 0.454
  374.2209  109.8499  -7.020  371.3122   16.2388  -7.016      110.89 0.322
  217.3028  103.2413  -8.293  213.2919   19.1451  -8.290      305.66 0.134
  978.0951  149.0162  -6.703  978.0537   18.8722  -6.694       82.02 0.240
 1012.2403  151.2447  -7.243 1012.3002   19.0370  -7.233      114.25 0.224
  460.9395  118.9092 -10.753  458.5434   20.0310 -10.748     2787.14 0.032
  561.0716  124.7240 -11.594  559.2306   19.7844 -11.588     6545.67 0.040
  574.4279  126.1720  -7.379  572.6545   20.4202  -7.373      134.62 0.338
  596.0662  127.4389  -5.774  594.4052   20.3754  -5.768       33.54 0.462
  701.1469  133.4284  -9.702  700.0374   20.0237  -9.696     1232.16 0.048
  918.3464  146.7916  -7.916  918.0977   20.2598  -7.907      242.10 0.132
  961.3503  150.1994  -8.201  961.2469   21.0591  -8.192      257.47 0.155
  982.9503  151.6434  -7.467  982.9165   21.1947  -7.458      125.12 0.277
  494.7327  122.4688  -8.736  492.5216   21.5403  -8.730      377.34 0.092
  933.7387  149.3003  -8.999  933.5389   21.8288  -8.990      543.15 0.074
  761.5444  140.3776  -7.896  760.6848   23.3111  -7.889      221.08 0.127
  817.5124  143.3566  -8.340  816.8796   22.9114  -8.332      331.21 0.089
 1016.6669  155.7311  -6.510 1016.7264   23.2353  -6.501       70.10 0.389
  293.9879  112.2879  -9.294  290.5028   23.5220  -9.291      624.37 0.080
  619.7296  133.5647  -6.746  618.1680   25.0481  -6.740      105.45 0.288
  660.3171  136.2676 -10.119  658.9530   25.2892 -10.113     1751.19 0.051
  211.1583  110.0611  -9.870  207.0613   26.3169  -9.868     1332.04 0.035
  368.2515  119.7507  -8.747  365.2511   26.4684  -8.743      457.63 0.113
  965.7646  155.9390 -10.346  965.6581   26.5054 -10.337     1801.99 0.042
  872.8866  151.1377  -6.475  872.4454   27.3271  -6.467       62.99 0.369
  607.8222  136.2514  -7.729  606.1857   28.4435  -7.723      177.42 0.151
  737.4464  143.1154  -8.304  736.4678   27.4870  -8.297      281.40 0.140
   72.7690  104.2537  -6.487   67.5843   28.8875  -6.486       76.91 0.461
  580.2671  135.2218  -7.490  578.4855   29.0824  -7.484      154.41 0.205
  840.3881  151.5801  -6.618  839.8180   29.7228  -6.610       65.22 0.362
 1003.0096  161.9733  -7.571 1003.0074   30.2686  -7.561      158.90 0.248
  139.0314  110.7205  -9.731  134.3589   31.3336  -9.730     1085.75 0.073
  701.0438  144.6326  -8.617  699.8887   31.1886  -8.610      428.73 0.082
  816.3250  151.7388  -6.762  815.6569   31.3282  -6.754       76.98 0.420
  280.0569  121.2553  -8.665  276.4211   33.3055  -8.662      402.18 0.103
  383.8429  127.2073 -10.481  380.9103   32.9578 -10.477     2478.33 0.036
  399.8679  128.7041  -6.339  397.0354   33.4803  -6.334       66.10 0.434
  646.8837  144.4088  -8.637  645.4172   34.2097  -8.631      411.24 0.079
  862.3103  156.8076  -6.950  861.8076   33.6083  -6.941       82.47 0.296
  955.5566  162.6542  -9.606  955.3922   33.8047  -9.597     1017.45 0.063
  222.4375  120.6135  -7.030  218.3686   36.1555  -7.028      116.70 0.438
  902.8678  161.4604  -6.230  902.5104   35.7943  -6.221       51.68 0.466
   18.9303  108.7250  -7.533   13.2611   36.6133  -7.532      169.60 0.210
  557.1972  142.1145  -6.089  555.2556   37.3430  -6.084       43.56 0.451
  334.4709  128.8798 -10.780  331.1882   37.6127 -10.777     2937.52 0.029
  492.1042  138.7505  -7.595  489.8001   37.9221  -7.590      169.78 0.323
  663.4092  149.6113  -6.908  662.0052   38.3935  -6.901       90.19 0.282
  830.4880  159.5921  -6.659  829.8494   38.2950  -6.651       72.68 0.425
  932.6891  165.9331  -6.339  932.4303   38.4476  -6.330       53.33 0.418
  506.0072  140.3776  -7.410  503.7777   38.7042  -7.404      157.93 0.213
  678.0415  151.3411  -6.348  676.7037   39.2325  -6.341       55.19 0.403
   90.8355  116.9299  -7.556   85.7265   40.4404  -7.555      147.55 0.163
  170.1257  121.2787  -6.895  165.6417   39.9841  -6.893      106.67 0.441
  226.7984  125.2463  -6.821  222.7374   40.5108  -6.819       88.96 0.259
  910.2112  167.4743  -7.198  909.8619   41.3378  -7.189      132.97 0.221
  220.8983  126.6448  -6.913  216.7836   42.2628  -6.911       94.86 0.278
  883.7557  166.2673 -10.186  883.3062   41.7326 -10.178     1753.15 0.045
  785.9119  161.1464 -10.126  785.0803   42.5256 -10.118     1591.47 0.047
  858.4500  166.7305  -6.732  857.8976   43.7192  -6.724       75.38 0.363
  753.8433  161.0976  -8.820  752.8696   44.4079  -8.813      394.43 0.237
  804.8796  164.4976  -7.859  804.1168   44.7207  -7.851      215.44 0.156
 1007.1975  177.7646  -6.100 1007.1594   45.7325  -6.091       36.19 0.463
  959.3113  175.5880  -9.316  959.1183   46.4521  -9.307      755.00 0.048
  586.1821  153.8828  -8.374  584.3503   47.3155  -8.368      307.45 0.087
  390.6148  142.6667  -7.685  387.6492   47.9584  -7.681      177.41 0.217
  132.6410  128.0344  -6.817  127.8138   48.9887  -6.815      102.01 0.412
  855.5182  171.4520  -8.406  854.9377   48.5964  -8.398      335.60 0.101
  905.4578  174.8783  -8.696  905.0650   48.9952  -8.687      465.62 0.099
  978.2539  179.7257  -9.722  978.1146   49.4279  -9.712     1108.22 0.060
  292.1456  138.9220  -8.790  288.5039   50.1877  -8.787      461.88 0.068
  410.8605  146.2823  -8.347  408.0125   50.3370  -8.343      314.52 0.085
  541.9544  154.4233  -5.808  539.8690   50.5279  -5.803       33.40 0.401
   25.7427  123.5297 -10.341   20.0405   50.9712 -10.341     1906.57 0.159
  348.4751  143.4434  -7.622  345.2149   51.2840  -7.619      174.74 0.159
  464.5078  150.4072  -7.356  461.9802   51.2054  -7.351      157.90 0.231
  241.6067  137.8860  -7.252  237.5895   52.2172  -7.250      107.49 0.216
  322.0501  143.1113  -8.382  318.6040   52.5531  -8.379      291.68 0.094
  477.2457  152.3545  -7.467  474.7868   52.3764  -7.462      166.21 0.193
  662.8279  164.6080 -10.269  661.3586   53.3672 -10.263     1691.11 0.037
  718.3523  167.3374  -7.516  717.1891   52.7605  -7.509      154.76 0.152
  801.1519  173.9441  -6.564  800.3384   54.3518  -6.556       67.98 0.277
   76.0571  130.2728 -10.250   70.7408   54.6456 -10.249     1821.12 0.050
  383.3023  149.3700  -8.539  380.2527   55.0835  -8.535      394.67 0.075
  600.9500  162.4731  -6.196  599.1618   54.9811  -6.190       56.07 0.364
  454.4233  154.1694 -10.298  451.8148   55.5646 -10.293     1792.31 0.037
   61.6482  131.2562  -7.878   56.2017   56.4991  -7.878      192.95 0.138
  219.5351  141.1971  -6.566  215.3281   56.8570  -6.564       61.29 0.465
  462.7625  157.3889  -7.831  460.1902   58.2694  -7.826      205.33 0.123
  816.3793  179.4771  -7.217  815.6103   58.9442  -7.209      118.52 0.141
  278.0476  147.4919  -9.471  274.2546   59.5873  -9.469      832.96 0.055
  293.7455  148.5537  -8.307  290.0639   59.6946  -8.304      319.15 0.072
  786.6148  178.5755  -8.972  785.7210   59.8398  -8.965      584.58 0.078
  112.1923  140.0726  -9.624  107.1233   62.2347  -9.623     1134.19 0.066
  379.7770  155.8071  -6.506  376.6704   61.7145  -6.502       55.27 0.343
  551.6905  166.8294  -8.205  549.6049   62.3005  -8.199      257.02 0.126
  845.7483  183.9395  -7.699  845.0846   61.6181  -7.691      171.38 0.151
  858.7310  184.6561  -8.329  858.1169   61.5495  -8.321      326.35 0.147
 1005.7136  194.3261 -10.251 1005.6192   62.3059 -10.241     1748.60 0.054
  211.2751  147.0254  -8.997  206.9702   63.1702  -8.995      655.05 0.061
  411.4826  159.0555  -9.141  408.5743   63.0326  -9.137      652.26 0.076
  145.0953  143.7844  -8.695  140.2774   63.9454  -8.694      448.27 0.075
  358.2125  156.6600  -9.529  354.9519   63.8712  -9.526     1033.32 0.049
   31.0253  137.6651  -5.723   25.2701   64.7487  -5.723       33.36 0.432
  254.0858  151.1891  -8.367  250.0909   64.7268  -8.365      374.04 0.116
  470.8980  164.1951 -10.797  468.3430   64.5612 -10.792     2658.62 0.033
  611.4366  173.1714  -8.097  609.6591   65.0058  -8.091      279.88 0.115
  564.1330  171.0869  -8.795  562.0999   65.7901  -8.789      475.40 0.139
  660.6969  176.8446 -10.208  659.1656   65.6864 -10.202     1789.60 0.041
 1013.5465  198.6877  -7.633 1013.4639   66.1750  -7.623      151.67 0.166
  554.8749  171.6801  -9.061  552.7857   66.9413  -9.056      667.14 0.049
  309.0685  157.4928  -8.910  305.4523   67.6793  -8.907      494.55 0.064
  520.1639  170.9339  -7.319  517.8745   68.2975  -7.314      118.45 0.250
  542.7329  172.2555  -7.989  540.5702   68.2491  -7.984      239.61 0.112
  172.9989  150.8223 -14.114  168.3671   69.2758 -14.112    59563.48 0.026
  451.6031  167.5018 -10.611  448.9116   69.0244 -10.606     2865.72 0.041
   68.9408  145.7637  -6.492   63.4681   70.5327  -6.492       58.40 0.347
  986.0781  203.2242  -7.968  985.8905   72.3475  -7.959      229.92 0.123
  519.0617  176.9481  -8.906  516.7377   74.3576  -8.901      494.79 0.071
   22.6186  147.7915  -9.241   16.7338   75.3676  -9.241      695.02 0.049
  590.2796  181.4776  -8.746  588.3486   74.5618  -8.740      426.48 0.064
  620.1245  183.2954  -7.324  618.3506   74.5674  -7.318      130.50 0.148
  790.2458  193.5264  -8.595  789.3122   74.5109  -8.588      345.43 0.118
   89.5230  152.7100  -7.704   84.1853   76.2162  -7.703      183.20 0.136
  597.9992  183.5708  -6.684  596.1022   76.1804  -6.678       64.99 0.370
  440.2030  174.9129  -8.134  437.4026   77.1022  -8.129      254.84 0.125
  848.0778  199.6005  -8.302  847.3682   77.0723  -8.294      299.90 0.110
