#
#--------------------------------------------
# ARGUMENTS
#--------------------------------------------
#  ARG0000: /g/lu/code/fortran/hst1pass/CODE/hst1pass/hst1pass
#  ARG0001: HMIN=5
#  ARG0002: FMIN=25
#  ARG0003: PSF=/g/lu/code/fortran/hst1pass/LIB/PSFs/STDPSFs/WFC3UV/STDPSF_WFC3UV_F814W.fits
#  ARG0004: GDC=/g/lu/code/fortran/hst1pass/LIB/GDCs/STDGDCs/WFC3UV/STDGDC_WFC3UV_F814W.fits
#  ARG0005: PMAX=99999
#  ARG0006: CMIN=-1.0
#  ARG0007: CMAX=0.1
#  ARG0008: QMAX=0.5
#  ARG0009: PERT=0
#  ARG0010: WCS=MAT
#  ARG0011: ART_UVW=FAKE.UVW
#  ARG0012: SHOW_ART-
#  ARG0013: OUT=uvwXYMpq
#  ARG0016: ../00.DATA/ie8j01xnq_flt.fits
#
#=================================
# WFC3/UVIS POSTFLASH INFO
#
# FLSHCORR: 'COMPLETE'
# FLASHDUR:                  3.9               3.90
# FLASHLVL:                   10              10.00
# FLASHLVL:                   10              10.00
# FLASHCUR: 'LOW    '                           L
# SHUTRPOS: 'B    '                             B
# DARKTIME:            96.707296              96.71
# DARKEST :                                    1.03 2020.20
#
#
#================================
# BASIC STAR-FINDING PARAMETERS
#
# FILENAME: ../00.DATA/ie8j01xnq_flt.fits
#   NAXIS1:  4096
#   NAXIS2:  4096
#
#   CRPIX1:     512.0000000000000000000000
#   CRPIX2:     511.0000000000000000000000
#   CRVAL1:     271.4793617729699803930998
#   CRVAL2:     -30.3369437301169995180317
#    CD1_1:       0.0000075969050041170608
#    CD1_2:       0.0000080216305677613700
#    CD2_1:       0.0000080216305677613700
#    CD2_2:      -0.0000075969050041170608
#
#     HMIN:          5
#     PMAX:      99999.0
#     FMIN:         25.0        25.0
# HISTMODE:          7.8
# HIFLAG  :      64000
# HIFLAG_I:      64000
# LOFLAG_I:        -50
# DOAPPHOT:          F
#      PID:      16067
#     FILT:      F814W
#    EXPTI:         87.0000
#    EXPTE:         87.0000
#     rDAT:       2020.19906235
#  TIMESTR:      '15:47:32'
#  DATESTR:      '2020-03-13'
# APERTURE:      'UVIS2-C1K1C-SUB '
#     GAIN:          0.00
#
#  PSF_INP: /g/lu/code/fortran/hst1pass/LIB/PSFs/STDPSFs/WFC3UV/STDPSF_WFC3UV_F814W.fits
#  PSF_USE: /g/lu/code/fortran/hst1pass/LIB/PSFs/STDPSFs/WFC3UV/STDPSF_WFC3UV_F814W.fits
#   NPERTs:    0
#
#  GDC_INP: /g/lu/code/fortran/hst1pass/LIB/GDCs/STDGDCs/WFC3UV/STDGDC_WFC3UV_F814W.fits
#
#
#================================
# PSF INFO
#
# PSFFILE_USE: /g/lu/code/fortran/hst1pass/LIB/PSFs/STDPSFs/WFC3UV/STDPSF_WFC3UV_F814W.fits
#
#      CENTRAL PIXEL ARRAY
#                           0000    0682    1365    2048    2731    3413    4096
#                             01      02      03      04      05      06      07
#               4096 08   0.1531  0.1594  0.1651  0.1662  0.1672  0.1688  0.1687
#               3413 07   0.1590  0.1618  0.1645  0.1658  0.1668  0.1677  0.1687
#               2731 06   0.1629  0.1645  0.1651  0.1659  0.1677  0.1684  0.1694
#               2049 05   0.1632  0.1655  0.1663  0.1663  0.1686  0.1697  0.1700
#               2048 04   0.1623  0.1666  0.1690  0.1680  0.1692  0.1719  0.1743
#               1365 03   0.1644  0.1668  0.1668  0.1673  0.1716  0.1733  0.1736
#               0682 02   0.1648  0.1656  0.1645  0.1696  0.1791  0.1741  0.1704
#               0000 01   0.1629  0.1640  0.1643  0.1746  0.1842  0.1734  0.1678
#
#
#=================================
# FRAME INFO
#
#      WCSMODE: MAT
#
#  WCSMODE: MAT
#    MFILE: ie8j01xnq_mat.UVuvWw
#    NMATs:   254
#       AB:     1.000012   -0.000005
#       CD:     0.000040    0.999953
#        1:   515.93  629.28
#        2:   517.94  634.95
#       ZP:    -0.00
#
#
#        INST1:        512.00      0.00000760  0.00000802       271.4793618  18:05:55.04
#            2:        511.00      0.00000802 -0.00000760       -30.3369437 -30:20:12.99       39.773
#        -----     ----------     ----------- -----------      ------------ ------------     ---------
#        FRAME         CRPIX         CD_1        CD_2           RADEC(DEG)  RADEC(SEXIG)     (mas/pix)
#        -----     ----------     ----------- -----------      ------------ ------------     ---------
#        DEST1:         -0.00     -0.00000000 -0.00000000        -0.0000000  00:00:00.00        0.000
#            2:         -0.00     -0.00000000 -0.00000000        -0.0000000 -00:00:00.00
#
#
# ARTSTARS:     1
#   ASTYPE:   UVW
#  ARTFILE: ie8j01xnq_art.xymnfo
#
#  MATFILE: ie8j01xnq_mat.UVuvWw
#    NMATs:   254
#       AB:     1.000012   -0.000005
#       CD:     0.000040    0.999953
#        1:   515.93  629.28
#        2:   517.94  634.95
#       ZP:    -0.00
#
#=======================================
# FINDING STATISTICS
#
#  WHY    NPIX      %PIX   EXPLANATION
#  --- --------  -------   -------------
#   1 15657035   93.323%   ..1..not on chip....
#   2   939898    5.602%   ..2..not loc max....
#   3    87731    0.523%   ..3..h < hmax.......
#   4     3392    0.020%   ..4..flux too low...
#   5        0    0.000%   ..5..below mask thr.
#   6        0    0.000%   ..6..out of bounds..
#   7        0    0.000%   ..7..loflag issues..
#   8        0    0.000%   ..8..saturated......
#   9        2    0.000%   ..9..not contig sat.
#  10        0    0.000%   .10..not loc sat max
#  11        0    0.000%   .11..sat weirdness..
#  12     4044    0.024%   .12..pk but not qsel
#  13     1446    0.009%   .13..pk too peaky...
#  14        0    0.000%   .14..satd CR........
#  15     1842    0.011%   .15..good unsat.....
#  16        6    0.000%   .16..good satd......
#
#
#=======================================
# LUMINOSITY FUNCTION EXTRACTED
#
#    MAG   LFe    CUMe      LFe/s CUMe/s
#-------- -----  ------   ------- ------
# LF -18      1      1          0      0
# LF -17      0      1          0      0
# LF -16      0      1          0      0
# LF -15      2      3          0      0
# LF -14     12     15          0      0
# LF -13     13     28          1      1
# LF -12     25     53          0      1
# LF -11     99    152          0      1
# LF -10    233    385          3      4
# LF  -9    312    697         13     17
# LF  -8    429   1126         16     33
# LF  -7    515   1641         27     60
# LF  -6    206   1847        125    185
# LF  -5      1   1848        245    430
# LF  -4      0   1848        338    768
# LF  -3      0   1848        444   1212
# LF  -2      0   1848        512   1724
# LF  -1      0   1848        124   1848
#-------- -----  ------   ------- ------
#
#
#=====================================
# BOUNDARY INFO   INST=8 Ks=2
#
# -----------     ------------- -------------     ------------- -------------     ------------- -------------     ------------- -------------
#     SYS CHP         P1a           P1b               P2a           P2b               P3a           P3b               P4a           P4b
# -----------     ------------- -------------     ------------- -------------     ------------- -------------     ------------- -------------
# BDRY_xy_K1:         1.0000000     2.0000000      1025.0000000     2.0000000      1025.0000000  1025.0000000         1.0000000  1025.0000000
# BDRY_uv_K1:         6.5533200    73.2765900      1024.8520600   134.8837700      1027.9537700  1160.1370600        12.8410400  1095.9083900
# BDRY_rd_K1:       271.4698462   -30.3369231       271.4793820   -30.3292230       271.4889384   -30.3369865       271.4794062   -30.3446418
# BDRY_UV_K1:         6.5533200    73.2765900      1024.8520600   134.8837700      1027.9537700  1160.1370600        12.8410400  1095.9083900
# -----------     ------------- -------------     ------------- -------------     ------------- -------------     ------------- -------------
# BDRY_xy_K2:      4095.0000000  4095.0000000      4095.0000000  4095.0000000      4095.0000000  4095.0000000      4095.0000000  4095.0000000
# BDRY_uv_K2:      4085.5385400  4454.7187200      4085.5385400  4454.7187200      4085.5385400  4454.7187200      4085.5385400  4454.7187200
# BDRY_rd_K2:       271.5464730   -30.3374716       271.5464730   -30.3374716       271.5464730   -30.3374716       271.5464730   -30.3374716
# BDRY_UV_K2:      4085.5385400  4454.7187200      4085.5385400  4454.7187200      4085.5385400  4454.7187200      4085.5385400  4454.7187200
# -----------     ------------- -------------     ------------- -------------     ------------- -------------     ------------- -------------
#
#
#===================================================
#  FILEOUT: ie8j01xnq_flt.uvwXYMpq                                                          
#---------------------------------------------------
# (01)  u -- u ref-frame           c002-c010    F001
# (02)  v -- v ref-frame           c012-c020    F002
# (03)  w -- dist-corr inst mag    c022-c028    F044
# (04)  X -- dist-cor x posn       c030-c038    F008
# (05)  Y -- dist-cor y posn       c040-c048    F009
# (06)  M -- instl mag (1000s)     c050-c056    F003
# (07)  p -- peak pixel value      c058-c068    F018
# (08)  q -- quality of fit        c070-c074    F019
#---------------------------------------------------
#
#  (01)      (02)     (03)     (04)      (05)     (06)      (07)     (08)   
#
#....u.... ....v.... ...w... ....X.... ....Y.... ...M... .....p..... ..q..  
#
  724.6034  120.8152 -12.402  723.6537    6.0528 -12.395    13571.12 0.024
  972.0276  136.0248  -6.848  972.0072    6.3091  -6.839       92.15 0.245
  222.5070   91.7028  -6.367  218.6009    7.3264  -6.365       52.85 0.338
  126.0901   86.2790  -7.229  121.4573    7.7399  -7.227      116.13 0.215
  418.9178  104.1934  -9.432  416.3344    7.8997  -9.427      845.40 0.059
  565.4244  112.7308  -8.469  563.6618    7.5750  -8.464      336.21 0.105
  869.6096  131.5915  -6.908  869.2230    8.0686  -6.900       93.73 0.234
  844.5770  130.4414  -6.278  844.0986    8.4279  -6.270       46.84 0.387
  481.0934  110.0471  -7.649  478.8612    9.9860  -7.644      169.90 0.179
  509.2523  112.0528  -9.532  507.1752   10.2878  -9.526      951.75 0.070
  814.8015  131.0856  -6.807  814.2025   10.8581  -6.799       86.91 0.479
  899.5280  136.2871  -7.118  899.2430   10.9390  -7.109      120.64 0.286
  159.6417   92.1145 -12.682  155.2439   11.5345 -12.680    15735.58 0.029
  363.3454  104.6656  -9.289  360.3894   11.7291  -9.285      746.85 0.061
   66.9719   88.4864  -6.081   61.8349   13.5098  -6.080       45.15 0.460
  174.0173   94.2365  -7.255  169.7206   12.7830  -7.253      128.91 0.269
  191.5319   98.1632 -12.370  187.3495   15.6413 -12.368    11967.25 0.026
  222.9325  100.4688  -6.010  218.9805   16.0400  -6.008       46.82 0.400
  368.6756  109.4217  -7.032  365.7314   16.1473  -7.028       99.16 0.225
  211.8078  102.9572  -8.227  207.7560   19.1945  -8.225      290.64 0.098
 1006.8234  150.8390  -7.314 1006.8678   18.9590  -7.305      120.78 0.224
  455.4877  118.6163 -10.768  453.0598   20.0679 -10.763     3125.16 0.037
  555.6225  124.4209 -11.598  553.7523   19.8116 -11.593     6604.87 0.031
  568.8600  125.8176  -7.500  567.0574   20.4034  -7.495      127.50 0.184
  912.9625  146.4079  -7.890  912.6946   20.2025  -7.881      227.06 0.083
  955.8309  149.8068  -8.179  955.7094   21.0012  -8.170      310.20 0.086
  977.5834  151.3995  -7.419  977.5326   21.2751  -7.410      130.00 0.248
  317.8460  112.0810  -6.005  314.5338   21.8719  -6.001       39.98 0.418
  489.3075  122.1480  -8.776  487.0660   21.5477  -8.771      466.01 0.066
  928.2812  148.9691  -9.000  928.0624   21.8282  -8.991      592.72 0.068
  756.1102  140.1468  -7.871  755.2274   23.4081  -7.864      215.15 0.182
  812.0330  143.0836  -8.333  811.3787   22.9691  -8.325      335.50 0.108
 1011.3026  155.4504  -6.611 1011.3466   23.2785  -6.601       80.53 0.338
  288.5393  112.0058  -9.305  285.0159   23.5706  -9.301      764.54 0.053
  654.8858  135.9399 -10.133  653.4957   25.2908 -10.127     1484.38 0.053
  205.6959  109.7736  -9.894  201.5579   26.3610  -9.891     1162.65 0.042
  362.8061  119.4159  -8.789  359.7701   26.4640  -8.785      438.82 0.083
  842.4900  148.4872  -5.701  841.9391   26.5173  -5.693       32.76 0.477
  867.3601  150.6635  -6.667  866.8982   27.1883  -6.659       84.17 0.269
  960.3194  155.6315 -10.373  960.1948   26.5277 -10.364     1916.90 0.045
  602.3673  135.9897  -7.612  600.7028   28.5123  -7.606      148.48 0.158
  732.0200  142.8683  -8.278  731.0175   27.5674  -8.271      295.57 0.100
  739.0373  143.6767  -6.264  738.0638   27.9503  -6.257       48.56 0.446
  574.9261  134.8627  -7.597  573.1166   29.0473  -7.592      166.02 0.169
  834.9856  151.2812  -6.644  834.3950   29.7501  -6.635       84.62 0.431
  997.6153  161.6591  -7.530  997.5969   30.2804  -7.521      157.18 0.200
  133.5504  110.4219  -9.730  128.8350   31.3670  -9.728     1192.36 0.070
  695.5907  144.2719  -8.682  694.3679   31.1314  -8.675      456.36 0.098
  810.6616  151.5096  -6.740  809.9708   31.4407  -6.732       70.02 0.335
  274.6031  120.9299  -8.626  270.9286   33.3114  -8.622      421.23 0.102
  378.3941  126.9087 -10.472  375.4261   32.9899 -10.468     2196.74 0.029
  394.3401  128.4444  -6.422  391.4720   33.5559  -6.418       46.34 0.408
  856.8161  156.4892  -7.139  856.2932   33.6218  -7.131       87.76 0.326
  243.6338  119.8929  -6.168  239.7318   34.1531  -6.165       51.34 0.435
  641.4398  144.0682  -8.664  639.9466   34.1992  -8.657      459.46 0.069
  216.8039  120.2666  -7.253  212.6933   36.1509  -7.250      136.69 0.212
  897.4773  161.2688  -6.374  897.0994   35.9287  -6.365       68.24 0.379
   13.4348  108.4096  -7.528    7.7181   36.6307  -7.527      148.45 0.184
  329.0242  128.5690 -10.798  325.7045   37.6325 -10.794     2852.13 0.031
  486.5959  138.5270  -7.691  484.2600   38.0319  -7.686      155.55 0.443
  657.8229  149.1887  -7.115  656.3922   38.3100  -7.109      103.16 0.186
  825.1967  159.2530  -6.509  824.5377   38.2757  -6.501       52.86 0.367
  500.6100  140.0139  -7.312  498.3504   38.6675  -7.306      108.37 0.142
  927.2410  165.6876  -6.449  926.9626   38.5320  -6.440       67.04 0.362
   85.3131  116.6453  -7.452   80.1591   40.4905  -7.451      119.82 0.293
  164.7277  120.9719  -6.776  160.2024   40.0045  -6.774      106.28 0.369
  900.7000  166.2117  -6.840  900.3179   40.6548  -6.831      113.88 0.421
  904.8639  167.1485  -7.114  904.4949   41.3361  -7.105      107.07 0.207
  215.4305  126.3549  -6.923  211.2749   42.3050  -6.921      105.45 0.369
  878.2956  165.9574 -10.229  877.8251   41.7535 -10.221     1871.58 0.035
  780.4626  160.8484 -10.125  779.6083   42.5569 -10.117     1396.39 0.039
  748.4297  160.7525  -8.818  747.4327   44.3903  -8.811      399.30 0.228
 1018.2045  176.6638  -7.566 1018.2045   43.9741  -7.557      178.00 0.170
  799.3933  164.2160  -7.863  798.6082   44.7706  -7.855      196.05 0.160
  953.8508  175.3098  -9.333  953.6390   46.5047  -9.324      694.50 0.036
 1001.8831  177.9399  -6.170 1001.8275   46.2269  -6.160       53.62 0.445
  580.7317  153.6033  -8.437  578.8708   47.3665  -8.431      365.94 0.101
  385.2577  142.3367  -7.653  382.2574   47.9537  -7.649      191.04 0.239
  126.9295  127.7711  -6.700  122.0567   49.0715  -6.698       72.57 0.339
  441.9281  147.1990  -6.406  439.2755   49.3723  -6.401       54.91 0.452
  850.1217  171.2257  -8.461  849.5206   48.6959  -8.453      316.62 0.091
  900.0045  174.5548  -8.708  899.5914   49.0023  -8.700      415.90 0.086
  286.6834  138.6242  -8.755  283.0029   50.2218  -8.752      501.45 0.063
  405.3356  146.0120  -8.306  402.4520   50.4020  -8.301      273.00 0.118
  972.8244  179.4411  -9.721  972.6669   49.4722  -9.712      999.17 0.053
   20.2940  123.2165 -10.339   14.5447   50.9882 -10.338     1668.43 0.156
  343.0622  143.1507  -7.588  339.7654   51.3199  -7.584      174.99 0.202
  459.0306  150.0602  -7.264  456.4709   51.1906  -7.260      128.79 0.183
  236.0783  137.6057  -7.245  232.0201   52.2728  -7.243      131.60 0.221
  471.7961  151.9728  -7.341  469.3057   52.3253  -7.336      128.58 0.189
  316.5595  142.7784  -8.380  313.0757   52.5538  -8.377      334.02 0.111
  657.3742  164.3103 -10.225  655.8781   53.4003 -10.219     1749.76 0.037
  712.9798  167.0805  -7.425  711.7920   52.8283  -7.418      152.49 0.153
  483.5890  154.3321  -6.323  481.1592   53.9639  -6.319       69.16 0.363
  795.8532  173.5383  -6.633  795.0184   54.2668  -6.625       64.83 0.264
   70.5895  129.9967 -10.250   65.2280   54.7011 -10.249     1851.56 0.031
  377.8224  149.0497  -8.580  374.7370   55.0961  -8.576      436.15 0.090
   56.0994  130.9243  -7.807   50.6067   56.5039  -7.807      168.94 0.137
  448.9781  153.8624 -10.268  446.3371   55.5878 -10.263     1738.11 0.041
  214.0696  140.8136  -6.393  209.8218   56.8058  -6.391       63.32 0.373
  457.3052  157.0993  -7.758  454.7004   58.3107  -7.753      195.13 0.172
  725.6916  173.2081  -6.487  724.5401   58.1657  -6.481       68.37 0.406
   95.4924  135.7747  -7.861   90.3084   58.9581  -7.860      214.70 0.154
  810.9158  179.1374  -7.305  810.1249   58.9350  -7.297      126.17 0.172
  272.6047  147.1689  -9.455  268.7726   59.5951  -9.452      815.32 0.052
  288.3250  148.3009  -8.309  284.6045   59.7710  -8.307      287.38 0.109
  781.1547  178.2980  -8.950  780.2379   59.8925  -8.943      604.58 0.061
  853.2956  184.2581  -8.395  852.6613   61.4807  -8.387      296.70 0.102
  106.7529  139.7231  -9.611  101.6403   62.2155  -9.609     1000.65 0.044
  374.1716  155.6857  -6.399  371.0270   61.9330  -6.395       56.46 0.343
  546.2360  166.5572  -8.193  544.1199   62.3592  -8.188      273.71 0.121
  840.2390  183.6262  -7.569  839.5540   61.6381  -7.561      159.54 0.206
 1000.2620  193.9970 -10.241 1000.1508   62.3069 -10.231     1872.45 0.032
  205.8495  146.6470  -9.008  201.5037   63.1218  -9.006      557.79 0.060
  406.0522  158.8466  -9.120  403.1086   63.1533  -9.116      702.61 0.060
 1015.0712  195.6184  -8.288 1015.0031   63.0279  -8.278      331.09 0.088
  139.6281  143.4745  -8.698  134.7671   63.9672  -8.697      464.77 0.092
  352.7352  156.3792  -9.501  349.4376   63.9231  -9.497      890.95 0.035
  248.7070  150.8840  -8.387  244.6726   64.7486  -8.385      338.19 0.083
  465.4360  163.8823 -10.814  462.8488   64.5797 -10.809     2969.72 0.023
  606.0715  172.8724  -8.092  604.2659   65.0324  -8.086      287.58 0.114
  558.6868  170.8155  -8.807  556.6235   65.8491  -8.802      407.89 0.177
  655.2411  176.5451 -10.213  653.6828   65.7178 -10.207     1775.76 0.045
 1007.9535  198.2480  -7.587 1007.8542   66.0745  -7.578      175.94 0.158
  549.4161  171.3872  -9.074  547.2964   66.9796  -9.069      652.32 0.056
  303.6339  157.1234  -8.879  299.9796   67.6404  -8.876      509.10 0.093
  514.7440  170.6731  -7.337  512.4237   68.3654  -7.332      116.84 0.160
  527.9795  171.2191  -6.159  525.7347   68.1090  -6.154       46.93 0.482
  537.3031  171.9245  -7.907  535.1099   68.2479  -7.902      233.95 0.129
  167.5402  150.5247 -14.101  162.8660   69.3096 -14.099   435607.88 0.000
  446.1453  167.1958 -10.624  443.4208   69.0496 -10.619     2533.71 0.038
   63.4835  145.5393  -6.452   57.9647   70.6394  -6.451       60.52 0.391
  980.6183  202.9704  -7.879  980.4128   72.4244  -7.870      190.52 0.132
  513.6225  176.6626  -8.885  511.2675   74.4022  -8.880      526.27 0.074
   17.1455  147.5272  -9.224   11.2126   75.4353  -9.224      653.28 0.064
  584.8239  181.1499  -8.774  582.8636   74.5654  -8.769      487.78 0.077
  614.6391  183.0013  -7.056  612.8365   74.6062  -7.051      106.76 0.205
  784.7814  193.2683  -8.609  783.8245   74.5834  -8.602      377.02 0.090
  592.7002  183.1648  -6.747  590.7753   76.0965  -6.742       74.50 0.341
  434.7565  174.6578  -8.017  431.9224   77.1776  -8.013      259.53 0.147
  842.6277  199.3362  -8.267  841.8966   77.1378  -8.259      297.42 0.128
  986.3896  208.2492  -6.803  986.1871   77.3313  -6.794       70.78 0.276
  227.4985  162.3943  -7.173  223.2351   77.5141  -7.171       96.25 0.242
  898.7628  203.3019 -11.215  898.2471   77.6982 -11.207     4531.21 0.021
