#
#--------------------------------------------
# ARGUMENTS
#--------------------------------------------
#  ARG0000: /g/lu/code/fortran/hst1pass/CODE/hst1pass/hst1pass
#  ARG0001: HMIN=5
#  ARG0002: FMIN=25
#  ARG0003: PSF=/g/lu/code/fortran/hst1pass/LIB/PSFs/STDPSFs/WFC3UV/STDPSF_WFC3UV_F814W.fits
#  ARG0004: GDC=/g/lu/code/fortran/hst1pass/LIB/GDCs/STDGDCs/WFC3UV/STDGDC_WFC3UV_F814W.fits
#  ARG0005: PMAX=99999
#  ARG0006: CMIN=-1.0
#  ARG0007: CMAX=0.1
#  ARG0008: QMAX=0.5
#  ARG0009: PERT=0
#  ARG0010: WCS=MAT
#  ARG0011: ART_UVW=FAKE.UVW
#  ARG0012: SHOW_ART-
#  ARG0013: OUT=uvwXYMpq
#  ARG0015: ../00.DATA/ie8j01xmq_flt.fits
#
#=================================
# WFC3/UVIS POSTFLASH INFO
#
# FLSHCORR: 'COMPLETE'
# FLASHDUR:                  3.9               3.90
# FLASHLVL:                   10              10.00
# FLASHLVL:                   10              10.00
# FLASHCUR: 'LOW    '                           L
# SHUTRPOS: 'A    '                             A
# DARKTIME:            96.739296              96.74
# DARKEST :                                    1.03 2020.20
#
#
#================================
# BASIC STAR-FINDING PARAMETERS
#
# FILENAME: ../00.DATA/ie8j01xmq_flt.fits
#   NAXIS1:  4096
#   NAXIS2:  4096
#
#   CRPIX1:     512.0000000000000000000000
#   CRPIX2:     511.0000000000000000000000
#   CRVAL1:     271.4793802753100067093328
#   CRVAL2:     -30.3370124313310007835298
#    CD1_1:       0.0000075969050041170608
#    CD1_2:       0.0000080216305677613700
#    CD2_1:       0.0000080216305677613700
#    CD2_2:      -0.0000075969050041170608
#
#     HMIN:          5
#     PMAX:      99999.0
#     FMIN:         25.0        25.0
# HISTMODE:          7.8
# HIFLAG  :      64000
# HIFLAG_I:      64000
# LOFLAG_I:        -50
# DOAPPHOT:          F
#      PID:      16067
#     FILT:      F814W
#    EXPTI:         87.0000
#    EXPTE:         87.0000
#     rDAT:       2020.19905472
#  TIMESTR:      '15:44:29'
#  DATESTR:      '2020-03-13'
# APERTURE:      'UVIS2-C1K1C-SUB '
#     GAIN:          0.00
#
#  PSF_INP: /g/lu/code/fortran/hst1pass/LIB/PSFs/STDPSFs/WFC3UV/STDPSF_WFC3UV_F814W.fits
#  PSF_USE: /g/lu/code/fortran/hst1pass/LIB/PSFs/STDPSFs/WFC3UV/STDPSF_WFC3UV_F814W.fits
#   NPERTs:    0
#
#  GDC_INP: /g/lu/code/fortran/hst1pass/LIB/GDCs/STDGDCs/WFC3UV/STDGDC_WFC3UV_F814W.fits
#
#
#================================
# PSF INFO
#
# PSFFILE_USE: /g/lu/code/fortran/hst1pass/LIB/PSFs/STDPSFs/WFC3UV/STDPSF_WFC3UV_F814W.fits
#
#      CENTRAL PIXEL ARRAY
#                           0000    0682    1365    2048    2731    3413    4096
#                             01      02      03      04      05      06      07
#               4096 08   0.1531  0.1594  0.1651  0.1662  0.1672  0.1688  0.1687
#               3413 07   0.1590  0.1618  0.1645  0.1658  0.1668  0.1677  0.1687
#               2731 06   0.1629  0.1645  0.1651  0.1659  0.1677  0.1684  0.1694
#               2049 05   0.1632  0.1655  0.1663  0.1663  0.1686  0.1697  0.1700
#               2048 04   0.1623  0.1666  0.1690  0.1680  0.1692  0.1719  0.1743
#               1365 03   0.1644  0.1668  0.1668  0.1673  0.1716  0.1733  0.1736
#               0682 02   0.1648  0.1656  0.1645  0.1696  0.1791  0.1741  0.1704
#               0000 01   0.1629  0.1640  0.1643  0.1746  0.1842  0.1734  0.1678
#
#
#=================================
# FRAME INFO
#
#      WCSMODE: MAT
#
#  WCSMODE: MAT
#    MFILE: ie8j01xmq_mat.UVuvWw
#    NMATs:   255
#       AB:     1.000014   -0.000001
#       CD:     0.000041    0.999955
#        1:   515.82  630.73
#        2:   521.31  631.05
#       ZP:     0.00
#
#
#        INST1:        512.00      0.00000760  0.00000802       271.4793803  18:05:55.05
#            2:        511.00      0.00000802 -0.00000760       -30.3370124 -30:20:13.24       39.773
#        -----     ----------     ----------- -----------      ------------ ------------     ---------
#        FRAME         CRPIX         CD_1        CD_2           RADEC(DEG)  RADEC(SEXIG)     (mas/pix)
#        -----     ----------     ----------- -----------      ------------ ------------     ---------
#        DEST1:         -0.00     -0.00000000 -0.00000000        -0.0000000  00:00:00.00        0.000
#            2:         -0.00     -0.00000000 -0.00000000        -0.0000000 -00:00:00.00
#
#
# ARTSTARS:     1
#   ASTYPE:   UVW
#  ARTFILE: ie8j01xmq_art.xymnfo
#
#  MATFILE: ie8j01xmq_mat.UVuvWw
#    NMATs:   255
#       AB:     1.000014   -0.000001
#       CD:     0.000041    0.999955
#        1:   515.82  630.73
#        2:   521.31  631.05
#       ZP:     0.00
#
#=======================================
# FINDING STATISTICS
#
#  WHY    NPIX      %PIX   EXPLANATION
#  --- --------  -------   -------------
#   1 15657035   93.323%   ..1..not on chip....
#   2   940144    5.604%   ..2..not loc max....
#   3    87342    0.521%   ..3..h < hmax.......
#   4     3320    0.020%   ..4..flux too low...
#   5        0    0.000%   ..5..below mask thr.
#   6        0    0.000%   ..6..out of bounds..
#   7        0    0.000%   ..7..loflag issues..
#   8        0    0.000%   ..8..saturated......
#   9        4    0.000%   ..9..not contig sat.
#  10        0    0.000%   .10..not loc sat max
#  11        0    0.000%   .11..sat weirdness..
#  12     4228    0.025%   .12..pk but not qsel
#  13     1462    0.009%   .13..pk too peaky...
#  14        0    0.000%   .14..satd CR........
#  15     1856    0.011%   .15..good unsat.....
#  16        5    0.000%   .16..good satd......
#
#
#=======================================
# LUMINOSITY FUNCTION EXTRACTED
#
#    MAG   LFe    CUMe      LFe/s CUMe/s
#-------- -----  ------   ------- ------
# LF -18      1      1          0      0
# LF -17      0      1          0      0
# LF -16      0      1          0      0
# LF -15      2      3          0      0
# LF -14     12     15          0      0
# LF -13     13     28          1      1
# LF -12     24     52          0      1
# LF -11    103    155          0      1
# LF -10    227    382          3      4
# LF  -9    335    717         13     17
# LF  -8    420   1137         15     32
# LF  -7    521   1658         25     57
# LF  -6    203   1861        128    185
# LF  -5      0   1861        248    433
# LF  -4      0   1861        352    785
# LF  -3      0   1861        423   1208
# LF  -2      0   1861        526   1734
# LF  -1      0   1861        127   1861
#-------- -----  ------   ------- ------
#
#
#=====================================
# BOUNDARY INFO   INST=8 Ks=2
#
# -----------     ------------- -------------     ------------- -------------     ------------- -------------     ------------- -------------
#     SYS CHP         P1a           P1b               P2a           P2b               P3a           P3b               P4a           P4b
# -----------     ------------- -------------     ------------- -------------     ------------- -------------     ------------- -------------
# BDRY_xy_K1:         1.0000000     2.0000000      1025.0000000     2.0000000      1025.0000000  1025.0000000         1.0000000  1025.0000000
# BDRY_uv_K1:         6.5533200    73.2765900      1024.8520600   134.8837700      1027.9537700  1160.1370600        12.8410400  1095.9083900
# BDRY_rd_K1:       271.4698647   -30.3369918       271.4794005   -30.3292917       271.4889569   -30.3370553       271.4794247   -30.3447105
# BDRY_UV_K1:         6.5533200    73.2765900      1024.8520600   134.8837700      1027.9537700  1160.1370600        12.8410400  1095.9083900
# -----------     ------------- -------------     ------------- -------------     ------------- -------------     ------------- -------------
# BDRY_xy_K2:      4095.0000000  4095.0000000      4095.0000000  4095.0000000      4095.0000000  4095.0000000      4095.0000000  4095.0000000
# BDRY_uv_K2:      4085.5385400  4454.7187200      4085.5385400  4454.7187200      4085.5385400  4454.7187200      4085.5385400  4454.7187200
# BDRY_rd_K2:       271.5464915   -30.3375403       271.5464915   -30.3375403       271.5464915   -30.3375403       271.5464915   -30.3375403
# BDRY_UV_K2:      4085.5385400  4454.7187200      4085.5385400  4454.7187200      4085.5385400  4454.7187200      4085.5385400  4454.7187200
# -----------     ------------- -------------     ------------- -------------     ------------- -------------     ------------- -------------
#
#
#===================================================
#  FILEOUT: ie8j01xmq_flt.uvwXYMpq                                                          
#---------------------------------------------------
# (01)  u -- u ref-frame           c002-c010    F001
# (02)  v -- v ref-frame           c012-c020    F002
# (03)  w -- dist-corr inst mag    c022-c028    F044
# (04)  X -- dist-cor x posn       c030-c038    F008
# (05)  Y -- dist-cor y posn       c040-c048    F009
# (06)  M -- instl mag (1000s)     c050-c056    F003
# (07)  p -- peak pixel value      c058-c068    F018
# (08)  q -- quality of fit        c070-c074    F019
#---------------------------------------------------
#
#  (01)      (02)     (03)     (04)      (05)     (06)      (07)     (08)   
#
#....u.... ....v.... ...w... ....X.... ....Y.... ...M... .....p..... ..q..  
#
  163.1255   86.7585 -12.673  158.7864    5.9838 -12.671    18284.76 0.033
  366.8454   99.3525  -9.288  363.9407    6.2220  -9.284      797.52 0.050
  902.9401  131.1858  -7.143  902.6855    5.6561  -7.135      101.92 0.165
  177.6962   88.8444  -7.309  173.4596    7.1847  -7.306      120.90 0.231
   70.3762   83.0377  -6.192   65.3016    7.8694  -6.191       40.10 0.443
  195.0219   92.8123 -12.373  190.8971   10.0957 -12.371    14249.29 0.027
  372.1895  104.1540  -6.925  369.2963   10.6846  -6.921       77.74 0.202
  976.0454  143.3975  -6.793  976.0150   13.4041  -6.784       86.60 0.330
 1010.2600  145.4398  -7.322 1010.3318   13.3797  -7.313      115.39 0.201
  215.4176   97.6025  -8.290  211.4239   13.6372  -8.287      255.29 0.106
  458.9806  113.2631 -10.757  456.6001   14.5230 -10.752     2444.02 0.030
  559.1029  119.0452 -11.581  557.2766   14.2464 -11.575     6258.55 0.025
  699.1652  127.7439  -9.692  698.0275   14.4556  -9.685     1047.81 0.056
  716.0334  128.4758  -8.831  715.0138   14.1963  -8.824      760.52 0.352
  572.5146  120.5132  -7.497  570.7560   14.8988  -7.491      143.64 0.165
  916.3402  141.1406  -7.852  916.1029   14.7563  -7.843      205.85 0.151
  492.7387  116.8359  -8.776  490.5428   16.0481  -8.770      466.06 0.059
  931.7382  143.5692  -8.997  931.5500   16.2453  -8.988      534.66 0.045
  959.3925  144.5571  -8.169  959.3007   15.5617  -8.160      253.33 0.102
  981.0805  146.0557  -7.382  981.0585   15.7463  -7.373      137.14 0.191
  815.5357  137.6296  -8.284  814.9158   17.3287  -8.276      322.68 0.110
  292.0206  106.6303  -9.274  288.5516   18.0009  -9.271      744.46 0.070
  759.4748  134.7229  -7.930  758.6276   17.8050  -7.923      231.64 0.155
  617.9032  127.9689  -6.928  616.3562   19.5846  -6.922       72.62 0.217
  658.3598  130.5879 -10.146  657.0096   19.7505 -10.140     1755.59 0.051
  209.1548  104.4333  -9.860  205.0741   20.8269  -9.857     1319.80 0.042
  366.2683  114.0406  -8.786  363.2839   20.8967  -8.782      487.20 0.066
  963.8160  150.2746 -10.355  963.7211   20.9853 -10.346     2140.74 0.034
  735.5200  137.5542  -8.325  734.5544   22.0649  -8.318      302.44 0.111
  870.9705  145.3489  -6.728  870.5416   21.6803  -6.719       63.72 0.324
  295.4711  111.8415  -6.769  291.9992   22.9871  -6.766      102.71 0.497
  605.7777  130.6197  -7.712  604.1548   22.9573  -7.706      187.17 0.136
  578.4426  129.5642  -7.620  576.6762   23.5567  -7.615      144.91 0.134
  838.5266  145.7968  -6.895  837.9697   24.0772  -6.887      100.85 0.234
 1001.0712  156.4059  -7.650 1001.0803   24.8446  -7.641      169.59 0.167
  137.0448  105.0508  -9.704  132.3896   25.7991  -9.702     1063.47 0.061
  699.1296  138.9677  -8.650  697.9453   25.6349  -8.643      426.87 0.070
  814.2638  146.0124  -6.844  813.6080   25.7508  -6.836       85.40 0.299
  381.8757  121.5800 -10.489  378.9586   27.4678 -10.485     2189.55 0.030
  477.4876  126.9959  -6.300  475.1523   27.0911  -6.295       56.34 0.377
  278.0546  115.6058  -8.623  274.4346   27.7944  -8.620      410.67 0.086
  398.0247  123.1027  -6.386  395.2083   28.0087  -6.381       59.97 0.488
  860.3596  151.1081  -7.063  859.8693   28.0518  -7.054      105.15 0.329
  953.5480  157.0106  -9.631  953.3948   28.3085  -9.622      948.95 0.058
  644.9375  138.6486  -8.681  643.4853   28.5896  -8.675      379.78 0.091
  900.7343  155.6876  -6.428  900.3881   30.1766  -6.419       56.38 0.390
   16.9889  103.2139  -7.547   11.3375   31.2328  -7.546      150.92 0.178
  220.3305  114.9106  -7.196  216.2773   30.5967  -7.193      107.38 0.273
  332.4952  123.2056 -10.795  329.2283   32.0755 -10.791     3279.52 0.035
  490.1542  133.0605  -7.610  487.8656   32.3700  -7.605      170.10 0.314
  504.0456  134.7589  -7.344  501.8311   33.2240  -7.339      117.35 0.271
  661.4372  143.7429  -6.961  660.0476   32.6672  -6.955      106.45 0.265
  930.8747  160.3888  -6.453  930.6276   33.0384  -6.444       67.29 0.383
  168.1759  115.5769  -6.832  163.7095   34.4158  -6.830       79.43 0.250
   88.7506  111.4239  -7.584   83.6574   35.0741  -7.583      142.47 0.234
  224.7728  119.5224  -6.877  220.7281   34.9261  -6.875       80.21 0.374
  881.7809  160.6061 -10.189  881.3429   36.2160 -10.180     1668.50 0.045
  908.3568  161.7670  -7.128  908.0196   35.7684  -7.119      107.14 0.262
  783.9348  155.5122 -10.110  783.1157   37.0342 -10.102     1795.10 0.033
  856.3933  161.0688  -6.543  855.8527   38.2063  -6.534       82.22 0.399
  751.8420  155.4510  -8.818  750.8810   38.9051  -8.811      431.24 0.217
  802.9034  158.9448  -7.826  802.1528   39.3106  -7.818      221.36 0.194
 1005.4392  172.2608  -6.263 1005.4126   40.3606  -6.253       51.72 0.393
  957.3277  169.9324  -9.342  957.1459   40.9423  -9.333      880.94 0.038
  388.6954  136.8959  -7.655  385.7462   42.3219  -7.651      169.40 0.130
  584.2226  148.2549  -8.434  582.4049   41.8271  -8.428      346.50 0.122
  853.5839  165.8658  -8.450  853.0154   43.1511  -8.442      406.30 0.084
  903.5184  169.1719  -8.724  903.1373   43.4316  -8.716      445.62 0.094
  130.3339  122.3518  -6.864  125.5214   43.4602  -6.863       79.22 0.218
  976.2802  174.0810  -9.748  976.1521   43.9284  -9.739     1234.73 0.040
  290.1768  133.2686  -8.697  286.5510   44.6701  -8.694      371.87 0.134
  408.8030  140.6977  -8.304  405.9694   44.8947  -8.300      325.44 0.134
   23.7646  117.8562 -10.328   18.0807   45.4305 -10.327     1654.90 0.129
  346.4374  137.7871  -7.633  343.1924   45.7683  -7.630      180.98 0.137
  462.6241  144.8817  -7.134  460.1118   45.8123  -7.130      155.56 0.344
  320.0615  137.3664  -8.417  316.6315   46.9458  -8.414      367.10 0.092
  475.3355  146.5591  -7.491  472.8929   46.7161  -7.486      143.10 0.203
  716.5818  161.6078  -7.453  715.4329   47.1602  -7.446      132.59 0.142
  486.9024  148.8662  -6.340  484.5188   48.3165  -6.335       62.44 0.341
  660.8593  158.9514 -10.242  659.4034   47.8514 -10.235     1791.12 0.032
   74.0655  124.5991 -10.279   68.7670   49.1058 -10.278     2002.94 0.049
  381.3654  143.6788  -8.495  378.3317   49.5273  -8.491      318.36 0.103
  452.4497  148.5269 -10.276  449.8566   50.0600 -10.271     2042.11 0.034
  598.9943  156.8743  -5.986  597.2199   49.5213  -5.980       42.85 0.474
   59.6871  125.5949  -7.924   54.2586   50.9694  -7.924      203.28 0.184
  217.6841  135.5145  -6.521  213.4945   51.3023  -6.518       64.99 0.390
   98.9195  130.4126  -7.752   93.7969   53.4014  -7.751      186.26 0.155
  460.6934  151.7268  -7.760  458.1358   52.7511  -7.756      212.48 0.148
  276.0936  141.7998  -9.488  272.3168   54.0299  -9.485      944.56 0.072
  291.7580  142.9713  -8.238  288.0916   54.2488  -8.235      290.91 0.132
  784.6190  172.9685  -8.954  783.7374   54.3762  -8.947      529.14 0.067
  814.4066  173.8440  -7.312  813.6498   53.4537  -7.304      105.67 0.139
  843.7598  178.2419  -7.670  843.1083   56.0648  -7.662      185.84 0.187
  856.7213  178.9845  -8.384  856.1191   56.0235  -8.376      390.02 0.118
  110.2202  134.4168  -9.623  105.1686   56.7120  -9.622     1072.63 0.046
  377.8885  150.2321  -6.713  374.7974   56.2709  -6.709       74.20 0.298
 1003.7584  188.6607 -10.245 1003.6753   56.7846 -10.236     1863.39 0.037
  143.0938  138.1159  -8.716  138.2929   58.4122  -8.714      386.34 0.080
  209.3096  141.3413  -8.998  205.0213   57.6206  -8.996      572.52 0.068
  356.2341  150.9803  -9.500  352.9891   58.3283  -9.496      920.79 0.050
  409.5138  153.4263  -9.096  406.6207   57.5401  -9.092      557.88 0.078
 1018.5277  190.3035  -8.329 1018.4868   57.5295  -8.319      292.95 0.124
  252.1857  145.4865  -8.430  248.2077   59.1552  -8.428      373.94 0.095
  468.9386  158.5398 -10.796  466.3989   59.0431 -10.791     3048.72 0.025
  562.1598  165.3777  -8.833  560.1412   60.2207  -8.827      467.44 0.167
  609.5731  167.5828  -8.181  607.8097   59.5505  -8.175      278.59 0.119
  658.7391  171.1935 -10.191  657.2213   60.1749 -10.185     1859.94 0.041
  552.8960  166.0558  -9.092  550.8209   61.4567  -9.087      621.36 0.057
 1011.4661  192.9554  -7.724 1011.3946   60.5947  -7.714      175.57 0.151
  307.1222  151.8567  -8.875  303.5217   62.1773  -8.872      469.40 0.058
  449.6118  161.8421 -10.623  446.9355   63.5033 -10.619     2321.89 0.042
  518.2961  165.2262  -7.328  516.0223   62.7225  -7.323      126.35 0.205
  540.8226  166.6526  -7.990  538.6744   62.7817  -7.985      217.54 0.143
  171.0264  145.1629 -14.107  166.4114   63.7505 -14.105    59345.83 0.027
   67.0210  140.2265  -6.370   61.5657   65.1240  -6.370       57.49 0.401
  517.1120  171.2993  -8.905  514.8028   68.8461  -8.900      561.69 0.050
  588.3588  175.8089  -8.828  586.4420   69.0297  -8.823      476.09 0.073
  618.2475  177.7263  -6.941  616.4874   69.1321  -6.936       95.55 0.349
  788.3082  187.8808  -8.603  787.3871   69.0049  -8.595      410.08 0.090
   20.6395  142.1509  -9.241   14.7726   69.8591  -9.241      740.41 0.076
  260.3030  157.2045  -6.234  256.3227   70.3486  -6.231       41.38 0.460
   87.5418  146.9279  -7.767   82.2223   70.5672  -7.766      181.60 0.141
  596.1737  177.9480  -6.812  594.2912   70.6882  -6.807       87.22 0.263
  231.1577  157.0072  -7.124  226.9531   71.9193  -7.122      115.72 0.243
  438.2925  169.1973  -8.040  435.5081   71.5201  -8.036      191.90 0.138
  846.0655  193.9340  -8.234  845.3677   71.5510  -8.226      249.52 0.157
  902.2510  197.9637 -11.202  901.7674   72.1723 -11.194     4593.84 0.038
  989.8265  202.8400  -6.552  989.6528   71.7390  -6.543       69.54 0.339
  801.7525  193.3921  -7.855  800.8699   73.6831  -7.847      208.38 0.142
  287.8060  163.3402  -7.921  284.0007   74.7995  -7.918      212.02 0.185
  607.3333  182.8610  -7.570  605.4912   74.9084  -7.564      146.44 0.159
  671.3655  187.2628 -10.979  669.8461   75.4205 -10.973     3364.19 0.079
  143.6776  156.2747  -6.957  138.7746   76.4908  -6.956       96.26 0.348
  789.7150  195.2442 -10.996  788.7726   76.2537 -10.989     3683.28 0.030
  735.2832  192.8403  -7.552  734.1001   77.1430  -7.546      177.34 0.138
  400.5433  173.3846  -9.046  397.4890   77.9810  -9.042      563.79 0.060
  579.0830  183.8321 -10.747  577.0782   77.5855 -10.742     2869.93 0.023
  595.8612  185.1685  -8.131  593.9452   77.9018  -8.126      285.84 0.106
  436.3888  176.3934 -10.424  433.5567   78.8091 -10.420     1961.50 0.033
  931.5587  206.7174  -6.577  931.1604   79.1177  -6.568       62.16 0.403
   59.3620  155.6581  -8.727   53.7446   80.9864  -8.726      508.21 0.100
  201.4940  164.6066  -8.496  197.0116   81.2983  -8.494      405.33 0.062
  531.0406  185.1188  -6.675  528.7493   81.7754  -6.670       88.20 0.336
  328.2851  173.6690  -7.278  324.7229   82.6449  -7.275      138.18 0.254
